 Cr2O3 Density=5.22 Thickness=1.00000E-02 microns
 Photon Energy (eV), Transmission
    10.000      0.54313    
    10.280      0.53880    
    10.560      0.53501    
    10.840      0.53088    
    11.120      0.52651    
    11.400      0.52250    
    11.680      0.51844    
    11.960      0.51384    
    12.240      0.50884    
    12.520      0.50371    
    12.800      0.49850    
    13.080      0.49330    
    13.360      0.48795    
    13.640      0.48127    
    13.920      0.47372    
    14.200      0.46534    
    14.480      0.45670    
    14.760      0.44709    
    15.040      0.43746    
    15.320      0.43104    
    15.600      0.42198    
    15.880      0.40889    
    16.160      0.39475    
    16.440      0.38029    
    16.720      0.36740    
    17.000      0.35431    
    17.280      0.34082    
    17.560      0.32691    
    17.840      0.31215    
    18.120      0.29689    
    18.400      0.28207    
    18.680      0.26682    
    18.960      0.25564    
    19.240      0.25005    
    19.520      0.24556    
    19.800      0.24282    
    20.080      0.24269    
    20.360      0.24414    
    20.640      0.24556    
    20.920      0.24697    
    21.200      0.24835    
    21.480      0.25023    
    21.760      0.25283    
    22.040      0.25586    
    22.320      0.25886    
    22.600      0.26181    
    22.880      0.26473    
    23.160      0.26762    
    23.440      0.27064    
    23.720      0.27480    
    24.000      0.27928    
    24.280      0.28402    
    24.560      0.28901    
    24.840      0.29394    
    25.120      0.29881    
    25.400      0.30362    
    25.680      0.30837    
    25.960      0.31306    
    26.240      0.31781    
    26.520      0.32302    
    26.800      0.32855    
    27.080      0.33417    
    27.360      0.33970    
    27.640      0.34514    
    27.920      0.35048    
    28.200      0.35573    
    28.480      0.36090    
    28.760      0.36597    
    29.040      0.37090    
    29.320      0.37571    
    29.600      0.38036    
    29.880      0.38493    
    30.160      0.38942    
    30.440      0.39384    
    30.720      0.39819    
    31.000      0.40247    
    31.280      0.40668    
    31.560      0.41082    
    31.840      0.41488    
    32.120      0.41883    
    32.400      0.42271    
    32.680      0.42649    
    32.960      0.43023    
    33.240      0.43390    
    33.520      0.43752    
    33.800      0.44108    
    34.080      0.44459    
    34.360      0.44805    
    34.640      0.45147    
    34.920      0.45484    
    35.200      0.45816    
    35.480      0.46144    
    35.760      0.46466    
    36.040      0.46784    
    36.320      0.47184    
    36.600      0.47600    
    36.880      0.48031    
    37.160      0.48465    
    37.440      0.48854    
    37.720      0.49213    
    38.000      0.49564    
    38.280      0.49907    
    38.560      0.50238    
    38.840      0.50544    
    39.120      0.50847    
    39.400      0.51139    
    39.680      0.51428    
    39.960      0.51654    
    40.240      0.51859    
    40.520      0.52056    
    40.800      0.52245    
    41.080      0.52426    
    41.360      0.52583    
    41.640      0.52737    
    41.920      0.52821    
    42.200      0.52881    
    42.480      0.52935    
    42.760      0.52983    
    43.040      0.53026    
    43.320      0.52822    
    43.600      0.52577    
    43.880      0.52274    
    44.160      0.51896    
    44.440      0.51489    
    44.720      0.51052    
    45.000      0.50585    
    45.280      0.50087    
    45.560      0.49559    
    45.840      0.48999    
    46.120      0.48432    
    46.400      0.47845    
    46.680      0.47266    
    46.960      0.47148    
    47.240      0.47024    
    47.520      0.46894    
    47.800      0.46760    
    48.080      0.46621    
    48.360      0.46486    
    48.640      0.46352    
    48.920      0.46211    
    49.200      0.46132    
    49.480      0.46059    
    49.760      0.45984    
    50.040      0.46025    
    50.320      0.46062    
    50.600      0.46097    
    50.880      0.46129    
    51.160      0.46159    
    51.440      0.46186    
    51.720      0.46210    
    52.000      0.46232    
    52.280      0.46261    
    52.560      0.46317    
    52.840      0.46370    
    53.120      0.46444    
    53.400      0.46582    
    53.680      0.46718    
    53.960      0.46852    
    54.240      0.46985    
    54.520      0.47117    
    54.800      0.47246    
    55.080      0.47374    
    55.360      0.47501    
    55.640      0.47626    
    55.920      0.47750    
    56.200      0.47872    
    56.480      0.47993    
    56.760      0.48183    
    57.040      0.48403    
    57.320      0.48621    
    57.600      0.48852    
    57.880      0.49102    
    58.160      0.49350    
    58.440      0.49596    
    58.720      0.49840    
    59.000      0.50082    
    59.280      0.50323    
    59.560      0.50562    
    59.840      0.50800    
    60.120      0.51036    
    60.400      0.51291    
    60.680      0.51592    
    60.960      0.51891    
    61.240      0.52188    
    61.520      0.52486    
    61.800      0.52781    
    62.080      0.53074    
    62.360      0.53366    
    62.640      0.53654    
    62.920      0.53941    
    63.200      0.54225    
    63.480      0.54507    
    63.760      0.54787    
    64.040      0.55065    
    64.320      0.55341    
    64.600      0.55614    
    64.880      0.55886    
    65.160      0.56155    
    65.440      0.56432    
    65.720      0.56730    
    66.000      0.57026    
    66.280      0.57319    
    66.560      0.57613    
    66.840      0.57907    
    67.120      0.58199    
    67.400      0.58489    
    67.680      0.58776    
    67.960      0.59060    
    68.240      0.59342    
    68.520      0.59622    
    68.800      0.59898    
    69.080      0.60172    
    69.360      0.60444    
    69.640      0.60713    
    69.920      0.60961    
    70.200      0.61204    
    70.480      0.61444    
    70.760      0.61683    
    71.040      0.61919    
    71.320      0.62154    
    71.600      0.62386    
    71.880      0.62617    
    72.160      0.62846    
    72.440      0.63072    
    72.720      0.63298    
    73.000      0.63521    
    73.280      0.63742    
    73.560      0.63962    
    73.840      0.64180    
    74.120      0.64396    
    74.400      0.64602    
    74.680      0.64791    
    74.960      0.64978    
    75.240      0.65164    
    75.520      0.65349    
    75.800      0.65529    
    76.080      0.65707    
    76.360      0.65884    
    76.640      0.66060    
    76.920      0.66234    
    77.200      0.66407    
    77.480      0.66579    
    77.760      0.66750    
    78.040      0.66919    
    78.320      0.67087    
    78.600      0.67254    
    78.880      0.67420    
    79.160      0.67584    
    79.440      0.67747    
    79.720      0.67909    
    80.000      0.68070    
    80.280      0.68230    
    80.560      0.68387    
    80.840      0.68538    
    81.120      0.68687    
    81.400      0.68835    
    81.680      0.68983    
    81.960      0.69122    
    82.240      0.69255    
    82.520      0.69387    
    82.800      0.69518    
    83.080      0.69648    
    83.360      0.69777    
    83.640      0.69906    
    83.920      0.70033    
    84.200      0.70160    
    84.480      0.70286    
    84.760      0.70410    
    85.040      0.70535    
    85.320      0.70658    
    85.600      0.70780    
    85.880      0.70902    
    86.160      0.71023    
    86.440      0.71143    
    86.720      0.71263    
    87.000      0.71381    
    87.280      0.71499    
    87.560      0.71616    
    87.840      0.71732    
    88.120      0.71848    
    88.400      0.71962    
    88.680      0.72076    
    88.960      0.72190    
    89.240      0.72303    
    89.520      0.72415    
    89.800      0.72527    
    90.080      0.72638    
    90.360      0.72748    
    90.640      0.72858    
    90.920      0.72968    
    91.200      0.73076    
    91.480      0.73184    
    91.760      0.73291    
    92.040      0.73398    
    92.320      0.73503    
    92.600      0.73609    
    92.880      0.73713    
    93.160      0.73817    
    93.440      0.73920    
    93.720      0.74023    
    94.000      0.74125    
    94.280      0.74226    
    94.560      0.74326    
    94.840      0.74426    
    95.120      0.74526    
    95.400      0.74625    
    95.680      0.74723    
    95.960      0.74820    
    96.240      0.74917    
    96.520      0.75014    
    96.800      0.75109    
    97.080      0.75205    
    97.360      0.75299    
    97.640      0.75392    
    97.920      0.75475    
    98.200      0.75558    
    98.480      0.75640    
    98.760      0.75722    
    99.040      0.75803    
    99.320      0.75887    
    99.600      0.75974    
    99.880      0.76061    
    100.16      0.76147    
    100.44      0.76233    
    100.72      0.76318    
    101.00      0.76403    
    101.28      0.76487    
    101.56      0.76570    
    101.84      0.76653    
    102.12      0.76736    
    102.40      0.76818    
    102.68      0.76899    
    102.96      0.76980    
    103.24      0.77060    
    103.52      0.77140    
    103.80      0.77219    
    104.08      0.77298    
    104.36      0.77377    
    104.64      0.77455    
    104.92      0.77532    
    105.20      0.77609    
    105.48      0.77686    
    105.76      0.77762    
    106.04      0.77837    
    106.32      0.77912    
    106.60      0.77987    
    106.88      0.78061    
    107.16      0.78135    
    107.44      0.78208    
    107.72      0.78273    
    108.00      0.78336    
    108.28      0.78399    
    108.56      0.78461    
    108.84      0.78523    
    109.12      0.78585    
    109.40      0.78645    
    109.68      0.78706    
    109.96      0.78765    
    110.24      0.78825    
    110.52      0.78884    
    110.80      0.78943    
    111.08      0.79001    
    111.36      0.79059    
    111.64      0.79117    
    111.92      0.79174    
    112.20      0.79231    
    112.48      0.79287    
    112.76      0.79344    
    113.04      0.79400    
    113.32      0.79455    
    113.60      0.79511    
    113.88      0.79566    
    114.16      0.79620    
    114.44      0.79675    
    114.72      0.79729    
    115.00      0.79783    
    115.28      0.79836    
    115.56      0.79889    
    115.84      0.79942    
    116.12      0.79994    
    116.40      0.80047    
    116.68      0.80099    
    116.96      0.80150    
    117.24      0.80201    
    117.52      0.80253    
    117.80      0.80303    
    118.08      0.80354    
    118.36      0.80404    
    118.64      0.80457    
    118.92      0.80510    
    119.20      0.80563    
    119.48      0.80615    
    119.76      0.80667    
    120.04      0.80718    
    120.32      0.80772    
    120.60      0.80831    
    120.88      0.80889    
    121.16      0.80948    
    121.44      0.81006    
    121.72      0.81063    
    122.00      0.81120    
    122.28      0.81178    
    122.56      0.81234    
    122.84      0.81291    
    123.12      0.81347    
    123.40      0.81403    
    123.68      0.81458    
    123.96      0.81513    
    124.24      0.81568    
    124.52      0.81623    
    124.80      0.81677    
    125.08      0.81731    
    125.36      0.81785    
    125.64      0.81839    
    125.92      0.81892    
    126.20      0.81945    
    126.48      0.81998    
    126.76      0.82050    
    127.04      0.82102    
    127.32      0.82154    
    127.60      0.82206    
    127.88      0.82257    
    128.16      0.82308    
    128.44      0.82359    
    128.72      0.82409    
    129.00      0.82460    
    129.28      0.82510    
    129.56      0.82559    
    129.84      0.82609    
    130.12      0.82658    
    130.40      0.82707    
    130.68      0.82756    
    130.96      0.82805    
    131.24      0.82853    
    131.52      0.82901    
    131.80      0.82949    
    132.08      0.82996    
    132.36      0.83044    
    132.64      0.83094    
    132.92      0.83145    
    133.20      0.83195    
    133.48      0.83246    
    133.76      0.83296    
    134.04      0.83345    
    134.32      0.83395    
    134.60      0.83444    
    134.88      0.83492    
    135.16      0.83540    
    135.44      0.83588    
    135.72      0.83636    
    136.00      0.83683    
    136.28      0.83730    
    136.56      0.83777    
    136.84      0.83824    
    137.12      0.83870    
    137.40      0.83916    
    137.68      0.83962    
    137.96      0.84008    
    138.24      0.84054    
    138.52      0.84099    
    138.80      0.84144    
    139.08      0.84189    
    139.36      0.84234    
    139.64      0.84278    
    139.92      0.84323    
    140.20      0.84367    
    140.48      0.84410    
    140.76      0.84454    
    141.04      0.84497    
    141.32      0.84541    
    141.60      0.84584    
    141.88      0.84627    
    142.16      0.84669    
    142.44      0.84712    
    142.72      0.84754    
    143.00      0.84796    
    143.28      0.84838    
    143.56      0.84879    
    143.84      0.84921    
    144.12      0.84962    
    144.40      0.85003    
    144.68      0.85044    
    144.96      0.85085    
    145.24      0.85125    
    145.52      0.85165    
    145.80      0.85206    
    146.08      0.85245    
    146.36      0.85284    
    146.64      0.85323    
    146.92      0.85362    
    147.20      0.85401    
    147.48      0.85440    
    147.76      0.85478    
    148.04      0.85516    
    148.32      0.85554    
    148.60      0.85591    
    148.88      0.85628    
    149.16      0.85665    
    149.44      0.85701    
    149.72      0.85737    
    150.00      0.85774    
