 Ge Density=5.323 Thickness=0.1 microns
 Photon Energy (eV), Transmission
    10.000      0.92280E-04
    10.280      0.94752E-04
    10.560      0.97216E-04
    10.840      0.10544E-03
    11.120      0.13920E-03
    11.400      0.18101E-03
    11.680      0.23142E-03
    11.960      0.29103E-03
    12.240      0.36186E-03
    12.520      0.44527E-03
    12.800      0.60296E-03
    13.080      0.95793E-03
    13.360      0.14655E-02
    13.640      0.21670E-02
    13.920      0.31071E-02
    14.200      0.43337E-02
    14.480      0.58944E-02
    14.760      0.78362E-02
    15.040      0.10287E-01
    15.320      0.13456E-01
    15.600      0.17307E-01
    15.880      0.21845E-01
    16.160      0.27105E-01
    16.440      0.33113E-01
    16.720      0.39881E-01
    17.000      0.47413E-01
    17.280      0.55702E-01
    17.560      0.64729E-01
    17.840      0.74471E-01
    18.120      0.84894E-01
    18.400      0.95962E-01
    18.680      0.10814    
    18.960      0.12198    
    19.240      0.13655    
    19.520      0.15170    
    19.800      0.16737    
    20.080      0.18349    
    20.360      0.19997    
    20.640      0.21692    
    20.920      0.23486    
    21.200      0.25736    
    21.480      0.28008    
    21.760      0.30289    
    22.040      0.32570    
    22.320      0.34839    
    22.600      0.37088    
    22.880      0.39307    
    23.160      0.41491    
    23.440      0.43655    
    23.720      0.45919    
    24.000      0.48260    
    24.280      0.50571    
    24.560      0.52809    
    24.840      0.54839    
    25.120      0.56242    
    25.400      0.57213    
    25.680      0.58160    
    25.960      0.58815    
    26.240      0.59245    
    26.520      0.59314    
    26.800      0.59382    
    27.080      0.59450    
    27.360      0.59516    
    27.640      0.59203    
    27.920      0.58612    
    28.200      0.56810    
    28.480      0.53808    
    28.760      0.48725    
    29.040      0.43477    
    29.320      0.38152    
    29.600      0.32851    
    29.880      0.27685    
    30.160      0.22772    
    30.440      0.18222    
    30.720      0.14136    
    31.000      0.12400    
    31.280      0.11054    
    31.560      0.10328    
    31.840      0.97235E-01
    32.120      0.93158E-01
    32.400      0.91836E-01
    32.680      0.93199E-01
    32.960      0.96848E-01
    33.240      0.10191    
    33.520      0.10702    
    33.800      0.11222    
    34.080      0.11719    
    34.360      0.12216    
    34.640      0.12719    
    34.920      0.13229    
    35.200      0.13740    
    35.480      0.14255    
    35.760      0.14733    
    36.040      0.15206    
    36.320      0.15683    
    36.600      0.16163    
    36.880      0.16645    
    37.160      0.17131    
    37.440      0.17550    
    37.720      0.17926    
    38.000      0.18203    
    38.280      0.18358    
    38.560      0.18512    
    38.840      0.18665    
    39.120      0.18818    
    39.400      0.18971    
    39.680      0.19122    
    39.960      0.19258    
    40.240      0.19388    
    40.520      0.19469    
    40.800      0.19496    
    41.080      0.19523    
    41.360      0.19550    
    41.640      0.19577    
    41.920      0.19604    
    42.200      0.19630    
    42.480      0.19601    
    42.760      0.19476    
    43.040      0.19353    
    43.320      0.19122    
    43.600      0.18885    
    43.880      0.18650    
    44.160      0.18418    
    44.440      0.18188    
    44.720      0.17961    
    45.000      0.17737    
    45.280      0.17515    
    45.560      0.17296    
    45.840      0.17080    
    46.120      0.16781    
    46.400      0.16454    
    46.680      0.16130    
    46.960      0.15786    
    47.240      0.15447    
    47.520      0.15114    
    47.800      0.14786    
    48.080      0.14463    
    48.360      0.14205    
    48.640      0.13983    
    48.920      0.13765    
    49.200      0.13608    
    49.480      0.13463    
    49.760      0.13320    
    50.040      0.13178    
    50.320      0.13038    
    50.600      0.12899    
    50.880      0.12762    
    51.160      0.12627    
    51.440      0.12493    
    51.720      0.12362    
    52.000      0.12233    
    52.280      0.12106    
    52.560      0.11982    
    52.840      0.11860    
    53.120      0.11740    
    53.400      0.11620    
    53.680      0.11502    
    53.960      0.11385    
    54.240      0.11270    
    54.520      0.11155    
    54.800      0.11042    
    55.080      0.10930    
    55.360      0.10819    
    55.640      0.10710    
    55.920      0.10583    
    56.200      0.10456    
    56.480      0.10330    
    56.760      0.10206    
    57.040      0.10083    
    57.320      0.99617E-01
    57.600      0.98418E-01
    57.880      0.97232E-01
    58.160      0.96061E-01
    58.440      0.94902E-01
    58.720      0.93758E-01
    59.000      0.92627E-01
    59.280      0.91509E-01
    59.560      0.90404E-01
    59.840      0.89313E-01
    60.120      0.88234E-01
    60.400      0.87164E-01
    60.680      0.86099E-01
    60.960      0.85047E-01
    61.240      0.84007E-01
    61.520      0.82969E-01
    61.800      0.81942E-01
    62.080      0.80927E-01
    62.360      0.79923E-01
    62.640      0.78933E-01
    62.920      0.77953E-01
    63.200      0.76986E-01
    63.480      0.76030E-01
    63.760      0.75086E-01
    64.040      0.74153E-01
    64.320      0.73231E-01
    64.600      0.72320E-01
    64.880      0.71420E-01
    65.160      0.70531E-01
    65.440      0.69653E-01
    65.720      0.68785E-01
    66.000      0.67928E-01
    66.280      0.67081E-01
    66.560      0.66244E-01
    66.840      0.65417E-01
    67.120      0.64601E-01
    67.400      0.63794E-01
    67.680      0.62959E-01
    67.960      0.62119E-01
    68.240      0.61289E-01
    68.520      0.60469E-01
    68.800      0.60094E-01
    69.080      0.59833E-01
    69.360      0.59575E-01
    69.640      0.59317E-01
    69.920      0.59149E-01
    70.200      0.58998E-01
    70.480      0.58849E-01
    70.760      0.58700E-01
    71.040      0.58552E-01
    71.320      0.58405E-01
    71.600      0.58259E-01
    71.880      0.58114E-01
    72.160      0.57969E-01
    72.440      0.57825E-01
    72.720      0.57683E-01
    73.000      0.57540E-01
    73.280      0.57399E-01
    73.560      0.57258E-01
    73.840      0.57118E-01
    74.120      0.56979E-01
    74.400      0.56841E-01
    74.680      0.56703E-01
    74.960      0.56566E-01
    75.240      0.56430E-01
    75.520      0.56294E-01
    75.800      0.56160E-01
    76.080      0.56026E-01
    76.360      0.55892E-01
    76.640      0.55760E-01
    76.920      0.55628E-01
    77.200      0.55496E-01
    77.480      0.55366E-01
    77.760      0.55236E-01
    78.040      0.55106E-01
    78.320      0.54978E-01
    78.600      0.54850E-01
    78.880      0.54722E-01
    79.160      0.54596E-01
    79.440      0.54470E-01
    79.720      0.54344E-01
    80.000      0.54219E-01
    80.280      0.54095E-01
    80.560      0.53972E-01
    80.840      0.53849E-01
    81.120      0.53726E-01
    81.400      0.53605E-01
    81.680      0.53483E-01
    81.960      0.53363E-01
    82.240      0.53243E-01
    82.520      0.53124E-01
    82.800      0.53005E-01
    83.080      0.52887E-01
    83.360      0.52794E-01
    83.640      0.52708E-01
    83.920      0.52622E-01
    84.200      0.52537E-01
    84.480      0.52452E-01
    84.760      0.52371E-01
    85.040      0.52291E-01
    85.320      0.52210E-01
    85.600      0.52130E-01
    85.880      0.52050E-01
    86.160      0.51971E-01
    86.440      0.51892E-01
    86.720      0.51813E-01
    87.000      0.51735E-01
    87.280      0.51657E-01
    87.560      0.51579E-01
    87.840      0.51502E-01
    88.120      0.51425E-01
    88.400      0.51348E-01
    88.680      0.51272E-01
    88.960      0.51196E-01
    89.240      0.51120E-01
    89.520      0.51045E-01
    89.800      0.50970E-01
    90.080      0.50895E-01
    90.360      0.50820E-01
    90.640      0.50746E-01
    90.920      0.50672E-01
    91.200      0.50598E-01
    91.480      0.50525E-01
    91.760      0.50452E-01
    92.040      0.50379E-01
    92.320      0.50307E-01
    92.600      0.50235E-01
    92.880      0.50163E-01
    93.160      0.50091E-01
    93.440      0.50020E-01
    93.720      0.49949E-01
    94.000      0.49878E-01
    94.280      0.49808E-01
    94.560      0.49737E-01
    94.840      0.49668E-01
    95.120      0.49598E-01
    95.400      0.49528E-01
    95.680      0.49459E-01
    95.960      0.49390E-01
    96.240      0.49322E-01
    96.520      0.49254E-01
    96.800      0.49185E-01
    97.080      0.49118E-01
    97.360      0.49050E-01
    97.640      0.48984E-01
    97.920      0.48929E-01
    98.200      0.48874E-01
    98.480      0.48819E-01
    98.760      0.48765E-01
    99.040      0.48711E-01
    99.320      0.48670E-01
    99.600      0.48644E-01
    99.880      0.48618E-01
    100.16      0.48592E-01
    100.44      0.48566E-01
    100.72      0.48541E-01
    101.00      0.48515E-01
    101.28      0.48490E-01
    101.56      0.48464E-01
    101.84      0.48439E-01
    102.12      0.48414E-01
    102.40      0.48389E-01
    102.68      0.48364E-01
    102.96      0.48339E-01
    103.24      0.48314E-01
    103.52      0.48289E-01
    103.80      0.48265E-01
    104.08      0.48240E-01
    104.36      0.48215E-01
    104.64      0.48191E-01
    104.92      0.48166E-01
    105.20      0.48142E-01
    105.48      0.48117E-01
    105.76      0.48093E-01
    106.04      0.48069E-01
    106.32      0.48045E-01
    106.60      0.48021E-01
    106.88      0.47997E-01
    107.16      0.47973E-01
    107.44      0.47950E-01
    107.72      0.47926E-01
    108.00      0.47902E-01
    108.28      0.47878E-01
    108.56      0.47855E-01
    108.84      0.47831E-01
    109.12      0.47808E-01
    109.40      0.47784E-01
    109.68      0.47761E-01
    109.96      0.47737E-01
    110.24      0.47714E-01
    110.52      0.47691E-01
    110.80      0.47667E-01
    111.08      0.47644E-01
    111.36      0.47621E-01
    111.64      0.47599E-01
    111.92      0.47576E-01
    112.20      0.47553E-01
    112.48      0.47531E-01
    112.76      0.47508E-01
    113.04      0.47486E-01
    113.32      0.47463E-01
    113.60      0.47441E-01
    113.88      0.47419E-01
    114.16      0.47397E-01
    114.44      0.47375E-01
    114.72      0.47352E-01
    115.00      0.47330E-01
    115.28      0.47308E-01
    115.56      0.47286E-01
    115.84      0.47265E-01
    116.12      0.47243E-01
    116.40      0.47221E-01
    116.68      0.47199E-01
    116.96      0.47177E-01
    117.24      0.47156E-01
    117.52      0.47134E-01
    117.80      0.47113E-01
    118.08      0.47091E-01
    118.36      0.47070E-01
    118.64      0.47048E-01
    118.92      0.47027E-01
    119.20      0.47006E-01
    119.48      0.46985E-01
    119.76      0.46964E-01
    120.04      0.46943E-01
    120.32      0.46922E-01
    120.60      0.46901E-01
    120.88      0.46880E-01
    121.16      0.46860E-01
    121.44      0.46839E-01
    121.72      0.46818E-01
    122.00      0.46798E-01
    122.28      0.46777E-01
    122.56      0.46757E-01
    122.84      0.46736E-01
    123.12      0.46716E-01
    123.40      0.46695E-01
    123.68      0.46675E-01
    123.96      0.46655E-01
    124.24      0.46637E-01
    124.52      0.46627E-01
    124.80      0.46618E-01
    125.08      0.46608E-01
    125.36      0.46598E-01
    125.64      0.46589E-01
    125.92      0.46579E-01
    126.20      0.46576E-01
    126.48      0.46632E-01
    126.76      0.46688E-01
    127.04      0.46743E-01
    127.32      0.46799E-01
    127.60      0.46855E-01
    127.88      0.46911E-01
    128.16      0.46966E-01
    128.44      0.47022E-01
    128.72      0.47077E-01
    129.00      0.47132E-01
    129.28      0.47188E-01
    129.56      0.47243E-01
    129.84      0.47298E-01
    130.12      0.47353E-01
    130.40      0.47408E-01
    130.68      0.47463E-01
    130.96      0.47518E-01
    131.24      0.47572E-01
    131.52      0.47627E-01
    131.80      0.47682E-01
    132.08      0.47737E-01
    132.36      0.47791E-01
    132.64      0.47846E-01
    132.92      0.47900E-01
    133.20      0.47954E-01
    133.48      0.48008E-01
    133.76      0.48063E-01
    134.04      0.48117E-01
    134.32      0.48171E-01
    134.60      0.48225E-01
    134.88      0.48278E-01
    135.16      0.48332E-01
    135.44      0.48386E-01
    135.72      0.48439E-01
    136.00      0.48493E-01
    136.28      0.48546E-01
    136.56      0.48599E-01
    136.84      0.48653E-01
    137.12      0.48706E-01
    137.40      0.48759E-01
    137.68      0.48812E-01
    137.96      0.48865E-01
    138.24      0.48917E-01
    138.52      0.48970E-01
    138.80      0.49023E-01
    139.08      0.49076E-01
    139.36      0.49128E-01
    139.64      0.49181E-01
    139.92      0.49233E-01
    140.20      0.49286E-01
    140.48      0.49338E-01
    140.76      0.49391E-01
    141.04      0.49443E-01
    141.32      0.49495E-01
    141.60      0.49547E-01
    141.88      0.49600E-01
    142.16      0.49652E-01
    142.44      0.49704E-01
    142.72      0.49756E-01
    143.00      0.49808E-01
    143.28      0.49860E-01
    143.56      0.49912E-01
    143.84      0.49963E-01
    144.12      0.50015E-01
    144.40      0.50066E-01
    144.68      0.50117E-01
    144.96      0.50169E-01
    145.24      0.50220E-01
    145.52      0.50271E-01
    145.80      0.50322E-01
    146.08      0.50373E-01
    146.36      0.50424E-01
    146.64      0.50475E-01
    146.92      0.50526E-01
    147.20      0.50577E-01
    147.48      0.50628E-01
    147.76      0.50678E-01
    148.04      0.50729E-01
    148.32      0.50780E-01
    148.60      0.50830E-01
    148.88      0.50881E-01
    149.16      0.50931E-01
    149.44      0.50981E-01
    149.72      0.51031E-01
    150.00      0.51082E-01
