 Si3N4 Density=3.17 Thickness=3.00000E-02 microns
 Photon Energy (eV), Transmission
    10.000      0.15726E-01
    10.280      0.17048E-01
    10.560      0.18405E-01
    10.840      0.19796E-01
    11.120      0.21202E-01
    11.400      0.22458E-01
    11.680      0.23667E-01
    11.960      0.24957E-01
    12.240      0.27175E-01
    12.520      0.29706E-01
    12.800      0.31861E-01
    13.080      0.33982E-01
    13.360      0.36059E-01
    13.640      0.38080E-01
    13.920      0.39528E-01
    14.200      0.41330E-01
    14.480      0.43307E-01
    14.760      0.44940E-01
    15.040      0.46108E-01
    15.320      0.46667E-01
    15.600      0.46775E-01
    15.880      0.46484E-01
    16.160      0.46794E-01
    16.440      0.47204E-01
    16.720      0.47154E-01
    17.000      0.48023E-01
    17.280      0.48633E-01
    17.560      0.48895E-01
    17.840      0.48923E-01
    18.120      0.49740E-01
    18.400      0.51726E-01
    18.680      0.52965E-01
    18.960      0.54420E-01
    19.240      0.55748E-01
    19.520      0.56644E-01
    19.800      0.57092E-01
    20.080      0.57408E-01
    20.360      0.58030E-01
    20.640      0.59212E-01
    20.920      0.60402E-01
    21.200      0.61498E-01
    21.480      0.62481E-01
    21.760      0.63363E-01
    22.040      0.64430E-01
    22.320      0.66042E-01
    22.600      0.68181E-01
    22.880      0.70216E-01
    23.160      0.72217E-01
    23.440      0.74216E-01
    23.720      0.76212E-01
    24.000      0.78732E-01
    24.280      0.81711E-01
    24.560      0.85164E-01
    24.840      0.88609E-01
    25.120      0.92093E-01
    25.400      0.95614E-01
    25.680      0.99168E-01
    25.960      0.10275    
    26.240      0.10637    
    26.520      0.11002    
    26.800      0.11353    
    27.080      0.11707    
    27.360      0.12118    
    27.640      0.12586    
    27.920      0.13099    
    28.200      0.13617    
    28.480      0.14139    
    28.760      0.14666    
    29.040      0.15196    
    29.320      0.15730    
    29.600      0.16267    
    29.880      0.16806    
    30.160      0.17348    
    30.440      0.17892    
    30.720      0.18438    
    31.000      0.18985    
    31.280      0.19533    
    31.560      0.20079    
    31.840      0.20624    
    32.120      0.21166    
    32.400      0.21699    
    32.680      0.22223    
    32.960      0.22734    
    33.240      0.23236    
    33.520      0.23737    
    33.800      0.24237    
    34.080      0.24735    
    34.360      0.25232    
    34.640      0.25727    
    34.920      0.26220    
    35.200      0.26712    
    35.480      0.27201    
    35.760      0.27688    
    36.040      0.28173    
    36.320      0.28655    
    36.600      0.29135    
    36.880      0.29613    
    37.160      0.30087    
    37.440      0.29979    
    37.720      0.30449    
    38.000      0.30916    
    38.280      0.31380    
    38.560      0.31842    
    38.840      0.32301    
    39.120      0.32757    
    39.400      0.33213    
    39.680      0.33667    
    39.960      0.34122    
    40.240      0.34575    
    40.520      0.35026    
    40.800      0.35473    
    41.080      0.35917    
    41.360      0.36359    
    41.640      0.36797    
    41.920      0.37232    
    42.200      0.37664    
    42.480      0.38093    
    42.760      0.38519    
    43.040      0.38941    
    43.320      0.39361    
    43.600      0.39777    
    43.880      0.40190    
    44.160      0.40600    
    44.440      0.41007    
    44.720      0.41410    
    45.000      0.41810    
    45.280      0.42207    
    45.560      0.42601    
    45.840      0.42992    
    46.120      0.43395    
    46.400      0.43800    
    46.680      0.44202    
    46.960      0.44612    
    47.240      0.45018    
    47.520      0.45420    
    47.800      0.45819    
    48.080      0.46215    
    48.360      0.46607    
    48.640      0.46996    
    48.920      0.47381    
    49.200      0.47763    
    49.480      0.48142    
    49.760      0.48517    
    50.040      0.48889    
    50.320      0.49257    
    50.600      0.49623    
    50.880      0.49985    
    51.160      0.50343    
    51.440      0.50699    
    51.720      0.51051    
    52.000      0.51400    
    52.280      0.51746    
    52.560      0.52086    
    52.840      0.52423    
    53.120      0.52697    
    53.400      0.52784    
    53.680      0.52870    
    53.960      0.52989    
    54.240      0.53252    
    54.520      0.53513    
    54.800      0.53774    
    55.080      0.54051    
    55.360      0.54327    
    55.640      0.54599    
    55.920      0.54870    
    56.200      0.55138    
    56.480      0.55404    
    56.760      0.55667    
    57.040      0.55928    
    57.320      0.56187    
    57.600      0.56444    
    57.880      0.56698    
    58.160      0.56950    
    58.440      0.57200    
    58.720      0.57451    
    59.000      0.57700    
    59.280      0.57947    
    59.560      0.58184    
    59.840      0.58415    
    60.120      0.58644    
    60.400      0.58872    
    60.680      0.59097    
    60.960      0.59320    
    61.240      0.59542    
    61.520      0.59765    
    61.800      0.59988    
    62.080      0.60209    
    62.360      0.60427    
    62.640      0.60643    
    62.920      0.60858    
    63.200      0.61070    
    63.480      0.61279    
    63.760      0.61487    
    64.040      0.61693    
    64.320      0.61897    
    64.600      0.62100    
    64.880      0.62301    
    65.160      0.62501    
    65.440      0.62703    
    65.720      0.62916    
    66.000      0.63128    
    66.280      0.63337    
    66.560      0.63545    
    66.840      0.63750    
    67.120      0.63954    
    67.400      0.64156    
    67.680      0.64357    
    67.960      0.64556    
    68.240      0.64753    
    68.520      0.64948    
    68.800      0.65144    
    69.080      0.65338    
    69.360      0.65531    
    69.640      0.65723    
    69.920      0.65928    
    70.200      0.66136    
    70.480      0.66341    
    70.760      0.66545    
    71.040      0.66765    
    71.320      0.66987    
    71.600      0.67208    
    71.880      0.67426    
    72.160      0.67643    
    72.440      0.67858    
    72.720      0.68071    
    73.000      0.68283    
    73.280      0.68492    
    73.560      0.68700    
    73.840      0.68905    
    74.120      0.69109    
    74.400      0.69317    
    74.680      0.69534    
    74.960      0.69749    
    75.240      0.69962    
    75.520      0.70173    
    75.800      0.70394    
    76.080      0.70613    
    76.360      0.70830    
    76.640      0.71044    
    76.920      0.71257    
    77.200      0.71466    
    77.480      0.71674    
    77.760      0.71880    
    78.040      0.72083    
    78.320      0.72285    
    78.600      0.72486    
    78.880      0.72684    
    79.160      0.72880    
    79.440      0.73050    
    79.720      0.73210    
    80.000      0.73369    
    80.280      0.73527    
    80.560      0.73683    
    80.840      0.73840    
    81.120      0.73996    
    81.400      0.74150    
    81.680      0.74303    
    81.960      0.74456    
    82.240      0.74607    
    82.520      0.74758    
    82.800      0.74907    
    83.080      0.75055    
    83.360      0.75201    
    83.640      0.75345    
    83.920      0.75489    
    84.200      0.75631    
    84.480      0.75772    
    84.760      0.75895    
    85.040      0.76017    
    85.320      0.76139    
    85.600      0.76259    
    85.880      0.76378    
    86.160      0.76496    
    86.440      0.76613    
    86.720      0.76729    
    87.000      0.76844    
    87.280      0.76958    
    87.560      0.77072    
    87.840      0.77184    
    88.120      0.77296    
    88.400      0.77406    
    88.680      0.77516    
    88.960      0.77625    
    89.240      0.77733    
    89.520      0.77840    
    89.800      0.77946    
    90.080      0.78052    
    90.360      0.78155    
    90.640      0.78257    
    90.920      0.78358    
    91.200      0.78458    
    91.480      0.78558    
    91.760      0.78654    
    92.040      0.78748    
    92.320      0.78842    
    92.600      0.78934    
    92.880      0.79026    
    93.160      0.79117    
    93.440      0.79207    
    93.720      0.79297    
    94.000      0.79386    
    94.280      0.79474    
    94.560      0.79561    
    94.840      0.79647    
    95.120      0.79733    
    95.400      0.79818    
    95.680      0.79902    
    95.960      0.79985    
    96.240      0.80067    
    96.520      0.80146    
    96.800      0.80225    
    97.080      0.80304    
    97.360      0.80381    
    97.640      0.80457    
    97.920      0.80524    
    98.200      0.80590    
    98.480      0.80655    
    98.760      0.80719    
    99.040      0.80783    
    99.320      0.80847    
    99.600      0.80835    
    99.880      0.73336    
    100.16      0.68670    
    100.44      0.63867    
    100.72      0.57492    
    101.00      0.55071    
    101.28      0.54977    
    101.56      0.56480    
    101.84      0.59623    
    102.12      0.61880    
    102.40      0.62418    
    102.68      0.62033    
    102.96      0.63259    
    103.24      0.63382    
    103.52      0.64791    
    103.80      0.65238    
    104.08      0.65412    
    104.36      0.65728    
    104.64      0.65690    
    104.92      0.65658    
    105.20      0.65313    
    105.48      0.64701    
    105.76      0.63608    
    106.04      0.62347    
    106.32      0.61872    
    106.60      0.61319    
    106.88      0.60744    
    107.16      0.60458    
    107.44      0.60240    
    107.72      0.59941    
    108.00      0.59577    
    108.28      0.59291    
    108.56      0.59111    
    108.84      0.59084    
    109.12      0.59047    
    109.40      0.59070    
    109.68      0.58886    
    109.96      0.58696    
    110.24      0.58404    
    110.52      0.58134    
    110.80      0.57800    
    111.08      0.57478    
    111.36      0.57192    
    111.64      0.56952    
    111.92      0.56759    
    112.20      0.56566    
    112.48      0.56371    
    112.76      0.56228    
    113.04      0.56089    
    113.32      0.55949    
    113.60      0.55809    
    113.88      0.55667    
    114.16      0.55440    
    114.44      0.55148    
    114.72      0.54832    
    115.00      0.54507    
    115.28      0.54147    
    115.56      0.53779    
    115.84      0.53391    
    116.12      0.53000    
    116.40      0.52607    
    116.68      0.52210    
    116.96      0.51810    
    117.24      0.51491    
    117.52      0.51187    
    117.80      0.50919    
    118.08      0.50694    
    118.36      0.50579    
    118.64      0.50421    
    118.92      0.50221    
    119.20      0.50180    
    119.48      0.50205    
    119.76      0.50122    
    120.04      0.50031    
    120.32      0.49939    
    120.60      0.49848    
    120.88      0.49756    
    121.16      0.49664    
    121.44      0.49571    
    121.72      0.49506    
    122.00      0.49449    
    122.28      0.49442    
    122.56      0.49434    
    122.84      0.49427    
    123.12      0.49419    
    123.40      0.49411    
    123.68      0.49434    
    123.96      0.49473    
    124.24      0.49431    
    124.52      0.49385    
    124.80      0.49457    
    125.08      0.49506    
    125.36      0.49496    
    125.64      0.49487    
    125.92      0.49477    
    126.20      0.49467    
    126.48      0.49457    
    126.76      0.49446    
    127.04      0.49439    
    127.32      0.49451    
    127.60      0.49440    
    127.88      0.49388    
    128.16      0.49336    
    128.44      0.49284    
    128.72      0.49241    
    129.00      0.49201    
    129.28      0.49162    
    129.56      0.49109    
    129.84      0.49010    
    130.12      0.48926    
    130.40      0.48864    
    130.68      0.48801    
    130.96      0.48738    
    131.24      0.48676    
    131.52      0.48618    
    131.80      0.48635    
    132.08      0.48651    
    132.36      0.48667    
    132.64      0.48683    
    132.92      0.48699    
    133.20      0.48795    
    133.48      0.48923    
    133.76      0.49154    
    134.04      0.49392    
    134.32      0.49628    
    134.60      0.49888    
    134.88      0.50188    
    135.16      0.50487    
    135.44      0.50785    
    135.72      0.51081    
    136.00      0.51375    
    136.28      0.51592    
    136.56      0.51801    
    136.84      0.51982    
    137.12      0.52185    
    137.40      0.52415    
    137.68      0.52530    
    137.96      0.52581    
    138.24      0.52632    
    138.52      0.52683    
    138.80      0.52733    
    139.08      0.52783    
    139.36      0.52833    
    139.64      0.52872    
    139.92      0.52900    
    140.20      0.52890    
    140.48      0.52864    
    140.76      0.52922    
    141.04      0.52987    
    141.32      0.53051    
    141.60      0.53134    
    141.88      0.53251    
    142.16      0.53334    
    142.44      0.53392    
    142.72      0.53480    
    143.00      0.53576    
    143.28      0.53518    
    143.56      0.53461    
    143.84      0.53404    
    144.12      0.53367    
    144.40      0.53356    
    144.68      0.53346    
    144.96      0.53335    
    145.24      0.53276    
    145.52      0.53216    
    145.80      0.53253    
    146.08      0.53269    
    146.36      0.53238    
    146.64      0.53234    
    146.92      0.53257    
    147.20      0.53249    
    147.48      0.53228    
    147.76      0.53276    
    148.04      0.53323    
    148.32      0.53331    
    148.60      0.53359    
    148.88      0.53424    
    149.16      0.53489    
    149.44      0.53555    
    149.72      0.53649    
    150.00      0.53752    
