 Sn Density=7.3 Thickness=0.2 microns
 Photon Energy (eV), Transmission
    10.000      0.11737E-08
    10.480      0.47930E-08
    10.960      0.16797E-07
    11.440      0.55749E-07
    11.920      0.24901E-06
    12.400      0.13306E-05
    12.880      0.89191E-05
    13.360      0.69785E-04
    13.840      0.52566E-03
    14.320      0.21293E-02
    14.800      0.63817E-02
    15.280      0.15229E-01
    15.760      0.29304E-01
    16.240      0.49610E-01
    16.720      0.72480E-01
    17.200      0.96713E-01
    17.680      0.12052    
    18.160      0.14330    
    18.640      0.16485    
    19.120      0.18228    
    19.600      0.19965    
    20.080      0.21207    
    20.560      0.22138    
    21.040      0.22678    
    21.520      0.22376    
    22.000      0.21919    
    22.480      0.20540    
    22.960      0.18520    
    23.440      0.14384    
    23.920      0.53409E-01
    24.400      0.50378E-02
    24.880      0.58569E-03
    25.360      0.28139E-03
    25.840      0.22504E-03
    26.320      0.17969E-03
    26.800      0.14844E-03
    27.280      0.13869E-03
    27.760      0.13886E-03
    28.240      0.13904E-03
    28.720      0.14020E-03
    29.200      0.18018E-03
    29.680      0.24577E-03
    30.160      0.32994E-03
    30.640      0.45080E-03
    31.120      0.61057E-03
    31.600      0.77691E-03
    32.080      0.89141E-03
    32.560      0.98452E-03
    33.040      0.10843E-02
    33.520      0.11391E-02
    34.000      0.10998E-02
    34.480      0.10042E-02
    34.960      0.91689E-03
    35.440      0.83726E-03
    35.920      0.75102E-03
    36.400      0.65463E-03
    36.880      0.56196E-03
    37.360      0.48185E-03
    37.840      0.41269E-03
    38.320      0.35307E-03
    38.800      0.30134E-03
    39.280      0.25158E-03
    39.760      0.20189E-03
    40.240      0.16154E-03
    40.720      0.12884E-03
    41.200      0.10244E-03
    41.680      0.81202E-04
    42.160      0.64164E-04
    42.640      0.50543E-04
    43.120      0.39689E-04
    43.600      0.31069E-04
    44.080      0.24191E-04
    44.560      0.18739E-04
    45.040      0.14415E-04
    45.520      0.11051E-04
    46.000      0.84429E-05
    46.480      0.64279E-05
    46.960      0.48770E-05
    47.440      0.36874E-05
    47.920      0.27784E-05
    48.400      0.20862E-05
    48.880      0.15610E-05
    49.360      0.12254E-05
    49.840      0.97065E-06
    50.320      0.76911E-06
    50.800      0.60840E-06
    51.280      0.48046E-06
    51.760      0.37880E-06
    52.240      0.29816E-06
    52.720      0.23431E-06
    53.200      0.18487E-06
    53.680      0.14750E-06
    54.160      0.12113E-06
    54.640      0.10218E-06
    55.120      0.86172E-07
    55.600      0.72651E-07
    56.080      0.61230E-07
    56.560      0.51587E-07
    57.040      0.43452E-07
    57.520      0.36589E-07
    58.000      0.30801E-07
    58.480      0.26482E-07
    58.960      0.25906E-07
    59.440      0.25407E-07
    59.920      0.25199E-07
    60.400      0.24995E-07
    60.880      0.24795E-07
    61.360      0.24597E-07
    61.840      0.24402E-07
    62.320      0.24210E-07
    62.800      0.24021E-07
    63.280      0.23835E-07
    63.760      0.23665E-07
    64.240      0.23497E-07
    64.720      0.23658E-07
    65.200      0.23879E-07
    65.680      0.24101E-07
    66.160      0.24324E-07
    66.640      0.24547E-07
    67.120      0.24769E-07
    67.600      0.24992E-07
    68.080      0.25215E-07
    68.560      0.25439E-07
    69.040      0.25664E-07
    69.520      0.25888E-07
    70.000      0.26113E-07
    70.480      0.26337E-07
    70.960      0.26789E-07
    71.440      0.27778E-07
    71.920      0.28794E-07
    72.400      0.29869E-07
    72.880      0.30977E-07
    73.360      0.32116E-07
    73.840      0.33287E-07
    74.320      0.34490E-07
    74.800      0.35726E-07
    75.280      0.36995E-07
    75.760      0.39133E-07
    76.240      0.42177E-07
    76.720      0.45422E-07
    77.200      0.48931E-07
    77.680      0.52671E-07
    78.160      0.56653E-07
    78.640      0.60890E-07
    79.120      0.65394E-07
    79.600      0.70181E-07
    80.080      0.75264E-07
    80.560      0.81134E-07
    81.040      0.92175E-07
    81.520      0.10454E-06
    82.000      0.11841E-06
    82.480      0.13400E-06
    82.960      0.15139E-06
    83.440      0.17075E-06
    83.920      0.19229E-06
    84.400      0.21620E-06
    84.880      0.24271E-06
    85.360      0.27205E-06
    85.840      0.30450E-06
    86.320      0.34030E-06
    86.800      0.37977E-06
    87.280      0.42323E-06
    87.760      0.47102E-06
    88.240      0.52349E-06
    88.720      0.58241E-06
    89.200      0.65589E-06
    89.680      0.73745E-06
    90.160      0.83181E-06
    90.640      0.95999E-06
    91.120      0.11055E-05
    91.600      0.12703E-05
    92.080      0.14565E-05
    92.560      0.16666E-05
    93.040      0.19031E-05
    93.520      0.21689E-05
    94.000      0.24669E-05
    94.480      0.28005E-05
    94.960      0.31732E-05
    95.440      0.35889E-05
    95.920      0.40517E-05
    96.400      0.45662E-05
    96.880      0.51372E-05
    97.360      0.57697E-05
    97.840      0.64692E-05
    98.320      0.72416E-05
    98.800      0.80932E-05
    99.280      0.90308E-05
    99.760      0.10061E-04
    100.24      0.11192E-04
    100.72      0.12432E-04
    101.20      0.13789E-04
    101.68      0.15273E-04
    102.16      0.16892E-04
    102.64      0.19734E-04
    103.12      0.24530E-04
    103.60      0.30329E-04
    104.08      0.37309E-04
    104.56      0.46710E-04
    105.04      0.58132E-04
    105.52      0.71931E-04
    106.00      0.88508E-04
    106.48      0.10831E-03
    106.96      0.13185E-03
    107.44      0.15969E-03
    107.92      0.19247E-03
    108.40      0.23087E-03
    108.88      0.27565E-03
    109.36      0.32763E-03
    109.84      0.38772E-03
    110.32      0.45689E-03
    110.80      0.53618E-03
    111.28      0.62670E-03
    111.76      0.72967E-03
    112.24      0.84635E-03
    112.72      0.97811E-03
    113.20      0.11264E-02
    113.68      0.12927E-02
    114.16      0.14785E-02
    114.64      0.16856E-02
    115.12      0.19155E-02
    115.60      0.21701E-02
    116.08      0.24512E-02
    116.56      0.27607E-02
    117.04      0.31006E-02
    117.52      0.34729E-02
    118.00      0.38794E-02
    118.48      0.43432E-02
    118.96      0.49003E-02
    119.44      0.55116E-02
    119.92      0.61802E-02
    120.40      0.69357E-02
    120.88      0.78202E-02
    121.36      0.87880E-02
    121.84      0.98434E-02
    122.32      0.10991E-01
    122.80      0.12235E-01
    123.28      0.13580E-01
    123.76      0.15030E-01
    124.24      0.16588E-01
    124.72      0.18259E-01
    125.20      0.20045E-01
    125.68      0.21951E-01
    126.16      0.23979E-01
    126.64      0.26134E-01
    127.12      0.28417E-01
    127.60      0.30831E-01
    128.08      0.33377E-01
    128.56      0.36058E-01
    129.04      0.38874E-01
    129.52      0.41827E-01
    130.00      0.44919E-01
    130.48      0.48150E-01
    130.96      0.51520E-01
    131.44      0.55029E-01
    131.92      0.58678E-01
    132.40      0.62466E-01
    132.88      0.66394E-01
    133.36      0.70459E-01
    133.84      0.74661E-01
    134.32      0.78997E-01
    134.80      0.83466E-01
    135.28      0.88066E-01
    135.76      0.92794E-01
    136.24      0.97649E-01
    136.72      0.10263    
    137.20      0.10773    
    137.68      0.11295    
    138.16      0.11828    
    138.64      0.12372    
    139.12      0.12928    
    139.60      0.13494    
    140.08      0.14069    
    140.56      0.14655    
    141.04      0.15250    
    141.52      0.15854    
    142.00      0.16467    
    142.48      0.17087    
    142.96      0.17716    
    143.44      0.18352    
    143.92      0.19327    
    144.40      0.20331    
    144.88      0.21350    
    145.36      0.22382    
    145.84      0.23436    
    146.32      0.24557    
    146.80      0.25690    
    147.28      0.26832    
    147.76      0.27982    
    148.24      0.29138    
    148.72      0.30300    
    149.20      0.31465    
    149.68      0.32632    
    150.16      0.33800    
    150.64      0.34967    
    151.12      0.36133    
    151.60      0.37296    
    152.08      0.38454    
    152.56      0.39607    
    153.04      0.40686    
    153.52      0.41398    
    154.00      0.42107    
    154.48      0.42811    
    154.96      0.43511    
    155.44      0.44206    
    155.92      0.44854    
    156.40      0.45497    
    156.88      0.46135    
    157.36      0.46769    
    157.84      0.47399    
    158.32      0.47906    
    158.80      0.48374    
    159.28      0.48839    
    159.76      0.49301    
    160.24      0.49759    
    160.72      0.50175    
    161.20      0.50540    
    161.68      0.50902    
    162.16      0.51262    
    162.64      0.51620    
    163.12      0.51964    
    163.60      0.51990    
    164.08      0.52017    
    164.56      0.52044    
    165.04      0.52071    
    165.52      0.52097    
    166.00      0.52110    
    166.48      0.52110    
    166.96      0.52110    
    167.44      0.52110    
    167.92      0.52111    
    168.40      0.52111    
    168.88      0.52018    
    169.36      0.51920    
    169.84      0.51822    
    170.32      0.51725    
    170.80      0.51628    
    171.28      0.51525    
    171.76      0.51407    
    172.24      0.51290    
    172.72      0.51173    
    173.20      0.51056    
    173.68      0.50939    
    174.16      0.50822    
    174.64      0.50706    
    175.12      0.50589    
    175.60      0.50473    
    176.08      0.50357    
    176.56      0.50242    
    177.04      0.50068    
    177.52      0.49864    
    178.00      0.49659    
    178.48      0.49455    
    178.96      0.49252    
    179.44      0.49048    
    179.92      0.48801    
    180.40      0.48536    
    180.88      0.48271    
    181.36      0.48006    
    181.84      0.47741    
    182.32      0.47476    
    182.80      0.47211    
    183.28      0.46947    
    183.76      0.46683    
    184.24      0.46419    
    184.72      0.46155    
    185.20      0.45891    
    185.68      0.45648    
    186.16      0.45427    
    186.64      0.45205    
    187.12      0.44984    
    187.60      0.44763    
    188.08      0.44543    
    188.56      0.44341    
    189.04      0.44198    
    189.52      0.44056    
    190.00      0.43914    
    190.48      0.43771    
    190.96      0.43630    
    191.44      0.43488    
    191.92      0.43347    
    192.40      0.43206    
    192.88      0.43065    
    193.36      0.42925    
    193.84      0.42785    
    194.32      0.42645    
    194.80      0.42505    
    195.28      0.42366    
    195.76      0.42227    
    196.24      0.42088    
    196.72      0.41949    
    197.20      0.41811    
    197.68      0.41673    
    198.16      0.41535    
    198.64      0.41398    
    199.12      0.41260    
    199.60      0.41123    
    200.08      0.40987    
    200.56      0.40850    
    201.04      0.40714    
    201.52      0.40578    
    202.00      0.40443    
    202.48      0.40307    
    202.96      0.40172    
    203.44      0.40038    
    203.92      0.39903    
    204.40      0.39769    
    204.88      0.39635    
    205.36      0.39501    
    205.84      0.39368    
    206.32      0.39235    
    206.80      0.39102    
    207.28      0.38970    
    207.76      0.38837    
    208.24      0.38705    
    208.72      0.38573    
    209.20      0.38442    
    209.68      0.38311    
    210.16      0.38180    
    210.64      0.38049    
    211.12      0.37951    
    211.60      0.37875    
    212.08      0.37799    
    212.56      0.37723    
    213.04      0.37648    
    213.52      0.37573    
    214.00      0.37497    
    214.48      0.37425    
    214.96      0.37354    
    215.44      0.37284    
    215.92      0.37214    
    216.40      0.37144    
    216.88      0.37074    
    217.36      0.37005    
    217.84      0.36935    
    218.32      0.36866    
    218.80      0.36797    
    219.28      0.36728    
    219.76      0.36659    
    220.24      0.36590    
    220.72      0.36521    
    221.20      0.36453    
    221.68      0.36385    
    222.16      0.36317    
    222.64      0.36249    
    223.12      0.36181    
    223.60      0.36113    
    224.08      0.36046    
    224.56      0.35978    
    225.04      0.35911    
    225.52      0.35844    
    226.00      0.35777    
    226.48      0.35710    
    226.96      0.35644    
    227.44      0.35577    
    227.92      0.35511    
    228.40      0.35445    
    228.88      0.35379    
    229.36      0.35313    
    229.84      0.35247    
    230.32      0.35181    
    230.80      0.35116    
    231.28      0.35051    
    231.76      0.34985    
    232.24      0.34920    
    232.72      0.34855    
    233.20      0.34791    
    233.68      0.34726    
    234.16      0.34661    
    234.64      0.34597    
    235.12      0.34533    
    235.60      0.34469    
    236.08      0.34405    
    236.56      0.34341    
    237.04      0.34277    
    237.52      0.34214    
    238.00      0.34150    
    238.48      0.34087    
    238.96      0.34024    
    239.44      0.33961    
    239.92      0.33914    
    240.40      0.33889    
    240.88      0.33864    
    241.36      0.33839    
    241.84      0.33815    
    242.32      0.33790    
    242.80      0.33765    
    243.28      0.33741    
    243.76      0.33726    
    244.24      0.33730    
    244.72      0.33734    
    245.20      0.33739    
    245.68      0.33743    
    246.16      0.33747    
    246.64      0.33751    
    247.12      0.33755    
    247.60      0.33760    
    248.08      0.33764    
    248.56      0.33768    
    249.04      0.33772    
    249.52      0.33776    
    250.00      0.33780    
